MULTI_REAL_FUNCTION
Projectile launch with air resistance - Euler method
4
x
y
vx
vy
x1: 0
x2: 5
NumPoints: 301
0 0 0 24.7487 24.7487 
0.0166667 0.412479 0.412479 24.6506 24.4871 
0.0333333 0.823322 0.820597 24.5524 24.2261 
0.05 1.23253 1.22437 24.4544 23.9658 
0.0666667 1.6401 1.6238 24.3564 23.7063 
0.0833333 2.04604 2.0189 24.2586 23.4476 
0.1 2.45035 2.40969 24.1608 23.1896 
0.116667 2.85303 2.79619 24.0633 22.9325 
0.133333 3.25409 3.1784 23.9659 22.6762 
0.15 3.65352 3.55633 23.8687 22.4207 
0.166667 4.05133 3.93001 23.7718 22.1662 
0.183333 4.44753 4.29945 23.6751 21.9125 
0.2 4.84211 4.66466 23.5786 21.6597 
0.216667 5.23509 5.02565 23.4825 21.4079 
0.233333 5.62646 5.38245 23.3867 21.1571 
0.25 6.01624 5.73507 23.2912 20.9072 
0.266667 6.40443 6.08352 23.1961 20.6584 
0.283333 6.79103 6.42783 23.1014 20.4105 
0.3 7.17605 6.768 23.0071 20.1637 
0.316667 7.55951 7.10407 22.9133 19.9179 
0.333333 7.9414 7.43603 22.8199 19.6732 
0.35 8.32173 7.76392 22.7269 19.4296 
0.366667 8.70051 8.08775 22.6345 19.1871 
0.383333 9.07775 8.40753 22.5425 18.9457 
0.4 9.45346 8.72329 22.4511 18.7053 
0.416667 9.82764 9.03505 22.3602 18.4661 
0.433333 10.2003 9.34282 22.2699 18.228 
0.45 10.5715 9.64662 22.1802 17.9911 
0.466667 10.9411 9.94647 22.091 17.7552 
0.483333 11.3093 10.2424 22.0024 17.5205 
0.5 11.676 10.5344 21.9144 17.287 
0.516667 12.0413 10.8225 21.8271 17.0546 
0.533333 12.4051 11.1068 21.7404 16.8233 
0.55 12.7674 11.3871 21.6543 16.5932 
0.566667 13.1283 11.6637 21.5688 16.3642 
0.583333 13.4878 11.9364 21.484 16.1364 
0.6 13.8459 12.2054 21.3998 15.9096 
0.616667 14.2025 12.4705 21.3164 15.6841 
0.633333 14.5578 12.7319 21.2335 15.4596 
0.65 14.9117 12.9896 21.1514 15.2363 
0.666667 15.2642 13.2435 21.0699 15.0141 
0.683333 15.6154 13.4938 20.9891 14.793 
0.7 15.9652 13.7403 20.9089 14.573 
0.716667 16.3137 13.9832 20.8295 14.3542 
0.733333 16.6608 14.2224 20.7507 14.1364 
0.75 17.0067 14.458 20.6726 13.9197 
0.766667 17.3512 14.69 20.5951 13.704 
0.783333 17.6945 14.9184 20.5184 13.4894 
0.8 18.0364 15.1433 20.4423 13.2759 
0.816667 18.3771 15.3645 20.3669 13.0634 
0.833333 18.7166 15.5823 20.2921 12.852 
0.85 19.0548 15.7965 20.218 12.6416 
0.866667 19.3918 16.0071 20.1446 12.4322 
0.883333 19.7275 16.2143 20.0719 12.2238 
0.9 20.062 16.4181 19.9997 12.0164 
0.916667 20.3954 16.6183 19.9283 11.8099 
0.933333 20.7275 16.8152 19.8575 11.6045 
0.95 21.0585 17.0086 19.7873 11.4 
0.966667 21.3883 17.1986 19.7178 11.1964 
0.983333 21.7169 17.3852 19.6489 10.9938 
1 22.0444 17.5684 19.5806 10.7921 
1.01667 22.3707 17.7483 19.513 10.5913 
1.03333 22.6959 17.9248 19.446 10.3914 
1.05 23.02 18.098 19.3795 10.1924 
1.06667 23.343 18.2679 19.3137 9.9943 
1.08333 23.6649 18.4345 19.2485 9.79705 
1.1 23.9857 18.5977 19.1839 9.60065 
1.11667 24.3054 18.7577 19.1198 9.4051 
1.13333 24.6241 18.9145 19.0563 9.21038 
1.15 24.9417 19.068 18.9934 9.01648 
1.16667 25.2583 19.2183 18.9311 8.82339 
1.18333 25.5738 19.3653 18.8693 8.63109 
1.2 25.8883 19.5092 18.8081 8.43959 
1.21667 26.2018 19.6498 18.7474 8.24885 
1.23333 26.5142 19.7873 18.6873 8.05889 
1.25 26.8257 19.9216 18.6276 7.86968 
1.26667 27.1361 20.0528 18.5685 7.68121 
1.28333 27.4456 20.1808 18.51 7.49348 
1.3 27.7541 20.3057 18.4519 7.30647 
1.31667 28.0616 20.4275 18.3943 7.12017 
1.33333 28.3682 20.5462 18.3372 6.93458 
1.35 28.6738 20.6617 18.2807 6.74968 
1.36667 28.9785 20.7742 18.2245 6.56546 
1.38333 29.2822 20.8837 18.1689 6.38192 
1.4 29.5851 20.99 18.1137 6.19904 
1.41667 29.887 21.0933 18.059 6.01681 
1.43333 30.1879 21.1936 18.0048 5.83523 
1.45 30.488 21.2909 17.9509 5.65429 
1.46667 30.7872 21.3851 17.8976 5.47398 
1.48333 31.0855 21.4763 17.8446 5.29428 
1.5 31.3829 21.5646 17.7921 5.1152 
1.51667 31.6794 21.6498 17.74 4.93671 
1.53333 31.9751 21.7321 17.6883 4.75882 
1.55 32.2699 21.8114 17.6369 4.58152 
1.56667 32.5639 21.8878 17.586 4.4048 
1.58333 32.857 21.9612 17.5355 4.22864 
1.6 33.1492 22.0317 17.4854 4.05305 
1.61667 33.4406 22.0992 17.4356 3.87802 
1.63333 33.7312 22.1639 17.3862 3.70353 
1.65 34.021 22.2256 17.3372 3.52958 
1.66667 34.31 22.2844 17.2885 3.35617 
1.68333 34.5981 22.3403 17.2401 3.18328 
1.7 34.8854 22.3934 17.1921 3.01092 
1.71667 35.172 22.4436 17.1445 2.83907 
1.73333 35.4577 22.4909 17.0971 2.66773 
1.75 35.7427 22.5354 17.0501 2.4969 
1.76667 36.0268 22.577 17.0034 2.32656 
1.78333 36.3102 22.6158 16.957 2.15671 
1.8 36.5928 22.6517 16.9109 1.98734 
1.81667 36.8747 22.6848 16.8651 1.81846 
1.83333 37.1558 22.7151 16.8196 1.65005 
1.85 37.4361 22.7426 16.7743 1.48211 
1.86667 37.7157 22.7673 16.7294 1.31464 
1.88333 37.9945 22.7892 16.6847 1.14763 
1.9 38.2726 22.8084 16.6402 0.981073 
1.91667 38.5499 22.8247 16.5961 0.814969 
1.93333 38.8265 22.8383 16.5521 0.649312 
1.95 39.1024 22.8491 16.5085 0.484098 
1.96667 39.3775 22.8572 16.465 0.319325 
1.98333 39.6519 22.8625 16.4218 0.154987 
2 39.9256 22.8651 16.3788 -0.00891896 
2.01667 40.1986 22.865 16.3361 -0.172396 
2.03333 40.4709 22.8621 16.2935 -0.335447 
2.05 40.7424 22.8565 16.2512 -0.498075 
2.06667 41.0133 22.8482 16.2091 -0.660284 
2.08333 41.2834 22.8372 16.1671 -0.822076 
2.1 41.5529 22.8235 16.1254 -0.983454 
2.11667 41.8216 22.8071 16.0839 -1.14442 
2.13333 42.0897 22.788 16.0425 -1.30498 
2.15 42.3571 22.7663 16.0013 -1.46513 
2.16667 42.6238 22.7418 15.9603 -1.62487 
2.18333 42.8898 22.7148 15.9194 -1.78421 
2.2 43.1551 22.685 15.8788 -1.94315 
2.21667 43.4198 22.6526 15.8382 -2.10169 
2.23333 43.6837 22.6176 15.7979 -2.25983 
2.25 43.947 22.58 15.7576 -2.41758 
2.26667 44.2096 22.5397 15.7175 -2.57493 
2.28333 44.4716 22.4967 15.6776 -2.73188 
2.3 44.7329 22.4512 15.6378 -2.88845 
2.31667 44.9935 22.4031 15.5981 -3.04462 
2.33333 45.2535 22.3523 15.5585 -3.20039 
2.35 45.5128 22.299 15.5191 -3.35578 
2.36667 45.7715 22.2431 15.4798 -3.51078 
2.38333 46.0295 22.1845 15.4405 -3.66538 
2.4 46.2868 22.1235 15.4014 -3.8196 
2.41667 46.5435 22.0598 15.3624 -3.97343 
2.43333 46.7995 21.9936 15.3235 -4.12686 
2.45 47.0549 21.9248 15.2847 -4.27991 
2.46667 47.3097 21.8535 15.246 -4.43257 
2.48333 47.5638 21.7796 15.2073 -4.58483 
2.5 47.8172 21.7032 15.1688 -4.73671 
2.51667 48.07 21.6242 15.1303 -4.8882 
2.53333 48.3222 21.5428 15.0919 -5.0393 
2.55 48.5737 21.4588 15.0536 -5.19 
2.56667 48.8246 21.3723 15.0154 -5.34031 
2.58333 49.0749 21.2833 14.9772 -5.49023 
2.6 49.3245 21.1918 14.939 -5.63975 
2.61667 49.5735 21.0978 14.901 -5.78888 
2.63333 49.8218 21.0013 14.863 -5.93762 
2.65 50.0696 20.9023 14.825 -6.08596 
2.66667 50.3166 20.8009 14.7871 -6.2339 
2.68333 50.5631 20.697 14.7493 -6.38144 
2.7 50.8089 20.5906 14.7115 -6.52858 
2.71667 51.0541 20.4818 14.6737 -6.67532 
2.73333 51.2987 20.3706 14.636 -6.82165 
2.75 51.5426 20.2569 14.5983 -6.96758 
2.76667 51.7859 20.1407 14.5606 -7.11311 
2.78333 52.0286 20.0222 14.523 -7.25823 
2.8 52.2706 19.9012 14.4854 -7.40294 
2.81667 52.512 19.7778 14.4478 -7.54724 
2.83333 52.7528 19.6521 14.4103 -7.69113 
2.85 52.993 19.5239 14.3727 -7.8346 
2.86667 53.2326 19.3933 14.3352 -7.97766 
2.88333 53.4715 19.2603 14.2978 -8.1203 
2.9 53.7098 19.125 14.2603 -8.26252 
2.91667 53.9475 18.9873 14.2228 -8.40432 
2.93333 54.1845 18.8472 14.1854 -8.5457 
2.95 54.4209 18.7048 14.148 -8.68666 
2.96667 54.6567 18.56 14.1106 -8.82718 
2.98333 54.8919 18.4129 14.0732 -8.96728 
3 55.1264 18.2634 14.0358 -9.10695 
3.01667 55.3604 18.1116 13.9984 -9.24619 
3.03333 55.5937 17.9575 13.961 -9.385 
3.05 55.8264 17.8011 13.9236 -9.52337 
3.06667 56.0584 17.6424 13.8862 -9.6613 
3.08333 56.2899 17.4814 13.8488 -9.79879 
3.1 56.5207 17.3181 13.8115 -9.93584 
3.11667 56.7509 17.1525 13.7741 -10.0724 
3.13333 56.9804 16.9846 13.7367 -10.2086 
3.15 57.2094 16.8145 13.6993 -10.3443 
3.16667 57.4377 16.642 13.6619 -10.4796 
3.18333 57.6654 16.4674 13.6245 -10.6144 
3.2 57.8925 16.2905 13.5871 -10.7488 
3.21667 58.1189 16.1113 13.5497 -10.8827 
3.23333 58.3448 15.93 13.5123 -11.0161 
3.25 58.57 15.7464 13.4748 -11.1491 
3.26667 58.7945 15.5605 13.4374 -11.2816 
3.28333 59.0185 15.3725 13.4 -11.4137 
3.3 59.2418 15.1823 13.3625 -11.5453 
3.31667 59.4645 14.9899 13.3251 -11.6764 
3.33333 59.6866 14.7953 13.2876 -11.8071 
3.35 59.9081 14.5985 13.2501 -11.9373 
3.36667 60.1289 14.3995 13.2126 -12.067 
3.38333 60.3491 14.1984 13.1751 -12.1963 
3.4 60.5687 13.9951 13.1376 -12.325 
3.41667 60.7877 13.7897 13.1001 -12.4533 
3.43333 61.006 13.5822 13.0626 -12.5812 
3.45 61.2237 13.3725 13.025 -12.7085 
3.46667 61.4408 13.1607 12.9875 -12.8354 
3.48333 61.6573 12.9467 12.9499 -12.9618 
3.5 61.8731 12.7307 12.9123 -13.0877 
3.51667 62.0883 12.5126 12.8748 -13.2131 
3.53333 62.3029 12.2924 12.8372 -13.338 
3.55 62.5168 12.0701 12.7996 -13.4624 
3.56667 62.7302 11.8457 12.762 -13.5864 
3.58333 62.9429 11.6192 12.7243 -13.7098 
3.6 63.1549 11.3908 12.6867 -13.8328 
3.61667 63.3664 11.1602 12.6491 -13.9552 
3.63333 63.5772 10.9276 12.6114 -14.0772 
3.65 63.7874 10.693 12.5738 -14.1987 
3.66667 63.9969 10.4564 12.5361 -14.3197 
3.68333 64.2059 10.2177 12.4985 -14.4401 
3.7 64.4142 9.97702 12.4608 -14.5601 
3.71667 64.6219 9.73436 12.4231 -14.6796 
3.73333 64.8289 9.4897 12.3855 -14.7986 
3.75 65.0353 9.24305 12.3478 -14.9171 
3.76667 65.2411 8.99444 12.3101 -15.035 
3.78333 65.4463 8.74385 12.2724 -15.1525 
3.8 65.6509 8.49131 12.2347 -15.2695 
3.81667 65.8548 8.23682 12.197 -15.3859 
3.83333 66.058 7.98039 12.1593 -15.5019 
3.85 66.2607 7.72202 12.1216 -15.6173 
3.86667 66.4627 7.46173 12.0839 -15.7323 
3.88333 66.6641 7.19953 12.0463 -15.8467 
3.9 66.8649 6.93542 12.0086 -15.9606 
3.91667 67.065 6.66941 11.9709 -16.074 
3.93333 67.2646 6.40151 11.9332 -16.1869 
3.95 67.4634 6.13172 11.8955 -16.2993 
3.96667 67.6617 5.86007 11.8579 -16.4112 
3.98333 67.8593 5.58655 11.8202 -16.5226 
4 68.0563 5.31117 11.7826 -16.6335 
4.01667 68.2527 5.03395 11.7449 -16.7438 
4.03333 68.4485 4.75488 11.7073 -16.8537 
4.05 68.6436 4.47399 11.6697 -16.963 
4.06667 68.8381 4.19127 11.632 -17.0719 
4.08333 69.0319 3.90674 11.5944 -17.1802 
4.1 69.2252 3.6204 11.5569 -17.288 
4.11667 69.4178 3.33227 11.5193 -17.3953 
4.13333 69.6098 3.04235 11.4817 -17.5021 
4.15 69.8012 2.75065 11.4442 -17.6083 
4.16667 69.9919 2.45718 11.4067 -17.7141 
4.18333 70.182 2.16194 11.3692 -17.8194 
4.2 70.3715 1.86495 11.3317 -17.9241 
4.21667 70.5603 1.56622 11.2942 -18.0284 
4.23333 70.7486 1.26574 11.2568 -18.1321 
4.25 70.9362 0.963543 11.2194 -18.2353 
4.26667 71.1232 0.659621 11.182 -18.338 
4.28333 71.3096 0.353987 11.1446 -18.4402 
4.3 71.4953 0.0466498 11.1072 -18.5419 
4.31667 71.6804 -0.262383 11.0699 -18.6431 
4.33333 71.8649 -0.573102 11.0326 -18.7438 
4.35 72.0488 -0.885499 10.9954 -18.844 
4.36667 72.232 -1.19957 10.9581 -18.9437 
4.38333 72.4147 -1.5153 10.9209 -19.0429 
4.4 72.5967 -1.83268 10.8838 -19.1416 
4.41667 72.7781 -2.1517 10.8466 -19.2398 
4.43333 72.9589 -2.47237 10.8095 -19.3375 
4.45 73.139 -2.79466 10.7725 -19.4347 
4.46667 73.3186 -3.11857 10.7354 -19.5314 
4.48333 73.4975 -3.44409 10.6984 -19.6276 
4.5 73.6758 -3.77122 10.6615 -19.7233 
4.51667 73.8535 -4.09994 10.6246 -19.8185 
4.53333 74.0306 -4.43025 10.5877 -19.9132 
4.55 74.207 -4.76213 10.5509 -20.0074 
4.56667 74.3829 -5.09559 10.5141 -20.1011 
4.58333 74.5581 -5.43061 10.4773 -20.1944 
4.6 74.7327 -5.76718 10.4406 -20.2871 
4.61667 74.9067 -6.1053 10.4039 -20.3794 
4.63333 75.0801 -6.44496 10.3673 -20.4712 
4.65 75.2529 -6.78614 10.3308 -20.5625 
4.66667 75.4251 -7.12885 10.2943 -20.6533 
4.68333 75.5967 -7.47307 10.2578 -20.7436 
4.7 75.7676 -7.8188 10.2214 -20.8335 
4.71667 75.938 -8.16602 10.185 -20.9228 
4.73333 76.1078 -8.51474 10.1487 -21.0117 
4.75 76.2769 -8.86493 10.1124 -21.1002 
4.76667 76.4454 -9.2166 10.0762 -21.1881 
4.78333 76.6134 -9.56974 10.0401 -21.2756 
4.8 76.7807 -9.92433 10.004 -21.3626 
4.81667 76.9474 -10.2804 9.96793 -21.4492 
4.83333 77.1136 -10.6379 9.93195 -21.5352 
4.85 77.2791 -10.9968 9.89603 -21.6209 
4.86667 77.444 -11.3571 9.86017 -21.706 
4.88333 77.6084 -11.7189 9.82437 -21.7907 
4.9 77.7721 -12.0821 9.78863 -21.8749 
4.91667 77.9353 -12.4467 9.75295 -21.9587 
4.93333 78.0978 -12.8126 9.71734 -22.042 
4.95 78.2598 -13.18 9.68179 -22.1249 
4.96667 78.4211 -13.5487 9.64631 -22.2073 
4.98333 78.5819 -13.9189 9.61089 -22.2892 
5 78.7421 -14.2904 9.57553 -22.3708 
